SpectraSuite Data File
++++++++++++++++++++++++++++++++++++
Date: Thu Jul 18 15:31:29 BST 2013
User: WadeLab
Dark Spectrum Present: No
Reference Spectrum Present: No
Number of Sampled Component Spectra: 1
Spectrometers: JAZA1505
Integration Time (usec): 35000 (JAZA1505)
Spectra Averaged: 20 (JAZA1505)
Boxcar Smoothing: 0 (JAZA1505)
Correct for Electrical Dark: No (JAZA1505)
Strobe/Lamp Enabled: No (JAZA1505)
Correct for Detector Non-linearity: No (JAZA1505)
Correct for Stray Light: No (JAZA1505)
Number of Pixels in Processed Spectrum: 2048
>>>>>Begin Processed Spectral Data<<<<<
339.60	585.89
339.98	585.89
340.36	585.89
340.74	588.81
341.12	610.13
341.50	626.62
341.88	619.10
342.26	621.57
342.64	640.54
343.02	640.54
343.40	618.65
343.78	647.38
344.17	644.80
344.55	661.86
344.93	646.37
345.31	652.66
345.69	644.46
346.07	646.04
346.45	646.60
346.83	659.84
347.21	644.35
347.59	642.56
347.97	646.26
348.35	659.50
348.73	643.34
349.11	647.16
349.49	636.39
349.87	644.80
350.25	640.76
350.63	614.39
351.01	651.53
351.39	647.16
351.77	638.85
352.15	631.34
352.53	649.51
352.91	637.40
353.29	638.41
353.67	627.30
354.05	649.85
354.43	632.35
354.81	644.13
355.19	627.63
355.57	635.82
355.95	626.17
356.33	633.80
356.71	624.60
357.09	639.98
357.47	650.52
357.84	630.77
358.22	651.09
358.60	630.44
358.98	633.69
359.36	630.77
359.74	639.75
360.12	633.92
360.50	627.63
360.88	625.50
361.26	635.60
361.64	628.75
362.02	632.01
362.39	638.18
362.77	646.26
363.15	633.58
363.53	639.19
363.91	637.40
364.29	624.49
364.67	637.84
365.05	632.01
365.42	640.43
365.80	639.42
366.18	641.55
366.56	630.66
366.94	638.52
367.32	639.08
367.70	643.79
368.07	646.71
368.45	655.46
368.83	627.86
369.21	639.86
369.59	649.29
369.97	643.90
370.34	632.68
370.72	639.19
371.10	647.83
371.48	637.17
371.86	625.72
372.23	644.69
372.61	631.78
372.99	624.49
373.37	642.67
373.75	619.89
374.12	627.86
374.50	642.89
374.88	646.82
375.26	652.77
375.64	651.53
376.01	655.24
376.39	641.66
376.77	639.98
377.15	644.91
377.52	665.67
377.90	639.86
378.28	646.82
378.66	639.53
379.03	634.48
379.41	636.05
379.79	639.75
380.17	648.39
380.54	652.54
380.92	649.63
381.30	636.95
381.67	643.45
382.05	649.96
382.43	645.03
382.81	649.07
383.18	628.31
383.56	638.07
383.94	642.00
384.31	633.69
384.69	652.43
385.07	652.77
385.44	639.53
385.82	642.00
386.20	640.76
386.57	636.95
386.95	633.13
387.33	642.56
387.70	657.71
388.08	637.62
388.46	644.35
388.83	647.16
389.21	656.14
389.59	654.79
389.96	636.61
390.34	649.51
390.72	658.83
391.09	637.51
391.47	642.67
391.84	641.21
392.22	639.98
392.60	645.92
392.97	635.49
393.35	642.56
393.73	650.64
394.10	646.60
394.48	654.00
394.85	637.73
395.23	646.60
395.61	648.62
395.98	656.14
396.36	634.14
396.73	623.93
397.11	640.09
397.48	634.37
397.86	650.19
398.24	637.40
398.61	634.48
398.99	649.07
399.36	648.06
399.74	634.93
400.11	644.02
400.49	637.06
400.86	636.83
401.24	639.53
401.61	637.17
401.99	649.07
402.36	648.73
402.74	631.34
403.11	655.69
403.49	657.26
403.86	646.48
404.24	639.64
404.61	639.64
404.99	639.30
405.36	655.57
405.74	654.12
406.11	674.88
406.49	643.01
406.86	640.76
407.24	638.63
407.61	637.96
407.99	656.47
408.36	651.87
408.74	649.51
409.11	641.44
409.49	650.19
409.86	649.63
410.24	663.32
410.61	647.49
410.98	643.23
411.36	650.08
411.73	642.22
412.11	643.01
412.48	654.34
412.86	651.65
413.23	649.85
413.60	647.94
413.98	657.37
414.35	652.88
414.73	640.31
415.10	640.54
415.47	640.43
415.85	640.87
416.22	632.12
416.60	632.68
416.97	651.76
417.34	651.20
417.72	630.10
418.09	651.53
418.46	647.61
418.84	653.22
419.21	646.71
419.58	641.77
419.96	648.84
420.33	646.82
420.70	646.93
421.08	643.45
421.45	651.87
421.82	642.89
422.20	674.76
422.57	660.62
422.94	644.13
423.32	640.87
423.69	642.11
424.06	643.68
424.44	639.08
424.81	655.13
425.18	647.27
425.56	639.19
425.93	662.64
426.30	636.95
426.67	622.02
427.05	636.83
427.42	648.39
427.79	677.01
428.17	639.98
428.54	642.11
428.91	645.47
429.28	634.59
429.66	634.25
430.03	660.40
430.40	640.09
430.77	653.78
431.15	654.79
431.52	634.93
431.89	655.35
432.26	632.46
432.63	652.10
433.01	654.34
433.38	638.29
433.75	649.07
434.12	644.91
434.50	647.83
434.87	654.68
435.24	642.89
435.61	646.60
435.98	655.35
436.36	664.10
436.73	673.30
437.10	670.95
437.47	655.35
437.84	649.96
438.21	642.89
438.59	649.51
438.96	640.09
439.33	661.63
439.70	657.03
440.07	660.96
440.44	640.87
440.81	659.61
441.19	659.84
441.56	644.13
441.93	661.75
442.30	654.12
442.67	640.54
443.04	663.09
443.41	662.87
443.78	651.87
444.16	657.37
444.53	663.65
444.90	661.97
445.27	667.36
445.64	671.51
446.01	659.84
446.38	666.57
446.75	661.41
447.12	691.93
447.49	678.02
447.86	679.93
448.24	672.29
448.61	668.93
448.98	677.79
449.35	676.67
449.72	692.16
450.09	694.51
450.46	674.43
450.83	660.62
451.20	690.25
451.57	685.65
451.94	684.75
452.31	697.66
452.68	686.43
453.05	694.96
453.42	691.48
453.79	703.15
454.16	696.98
454.53	717.07
454.90	701.58
455.27	716.06
455.64	704.39
456.01	714.26
456.38	716.51
456.75	724.25
457.12	739.06
457.49	725.37
457.86	733.23
458.23	731.21
458.60	733.79
458.97	730.09
459.34	754.33
459.71	746.02
460.08	744.68
460.45	757.13
460.82	742.77
461.18	760.72
461.55	765.77
461.92	765.77
462.29	754.21
462.66	769.36
463.03	771.38
463.40	784.74
463.77	779.01
464.14	781.71
464.51	789.34
464.88	776.66
465.25	791.92
465.61	797.53
465.98	774.19
466.35	797.08
466.72	810.88
467.09	815.60
467.46	806.96
467.83	825.58
468.20	820.20
468.56	830.07
468.93	820.53
469.30	844.44
469.67	842.42
470.04	855.10
470.41	846.34
470.77	866.09
471.14	851.51
471.51	861.83
471.88	872.49
472.25	880.01
472.62	882.03
472.98	900.10
473.35	898.64
473.72	918.05
474.09	923.77
474.46	919.06
474.82	917.83
475.19	931.07
475.56	940.16
475.93	943.86
476.29	953.85
476.66	968.55
477.03	980.89
477.40	969.00
477.77	995.71
478.13	1012.54
478.50	1009.51
478.87	1025.44
479.24	1049.57
479.60	1045.87
479.97	1058.21
480.34	1069.66
480.71	1085.26
481.07	1116.00
481.44	1147.09
481.81	1167.62
482.17	1168.97
482.54	1181.09
482.91	1218.79
483.28	1232.15
483.64	1256.50
484.01	1291.85
484.38	1329.22
484.74	1345.04
485.11	1357.05
485.48	1383.19
485.84	1416.07
486.21	1434.70
486.58	1503.83
486.94	1512.58
487.31	1526.16
487.68	1578.90
488.04	1612.45
488.41	1661.60
488.78	1697.85
489.14	1721.98
489.51	1780.89
489.87	1819.94
490.24	1879.31
490.61	1935.53
490.97	1964.14
491.34	2029.34
491.71	2053.58
492.07	2142.90
492.44	2176.57
492.80	2241.54
493.17	2299.22
493.54	2390.34
493.90	2443.31
494.27	2519.17
494.63	2561.70
495.00	2656.41
495.37	2727.78
495.73	2815.31
496.10	2892.63
496.46	2953.11
496.83	3031.67
497.19	3182.71
497.56	3223.11
497.92	3304.02
498.29	3405.91
498.65	3513.75
499.02	3581.31
499.39	3700.60
499.75	3812.03
500.12	3939.28
500.48	4011.44
500.85	4140.15
501.21	4242.38
501.58	4357.29
501.94	4484.43
502.31	4616.63
502.67	4720.76
503.04	4900.54
503.40	4996.59
503.77	5125.31
504.13	5280.17
504.50	5392.05
504.86	5595.84
505.23	5717.37
505.59	5916.22
505.95	6003.30
506.32	6196.42
506.68	6348.70
507.05	6499.41
507.41	6687.60
507.78	6832.58
508.14	7008.77
508.51	7199.87
508.87	7358.88
509.23	7554.03
509.60	7704.18
509.96	7861.51
510.33	8093.46
510.69	8219.48
511.05	8460.75
511.42	8674.52
511.78	8825.34
512.15	9051.91
512.51	9219.45
512.87	9419.65
513.24	9628.71
513.60	9857.52
513.97	10052.33
514.33	10253.53
514.69	10476.17
515.06	10641.81
515.42	10925.60
515.78	11105.60
516.15	11303.89
516.51	11569.28
516.87	11784.07
517.24	11958.45
517.60	12310.37
517.96	12407.44
518.33	12601.12
518.69	12726.36
519.05	13000.28
519.42	13203.96
519.78	13344.12
520.14	13621.18
520.51	13756.18
520.87	14063.77
521.23	14202.80
521.59	14425.22
521.96	14600.17
522.32	14830.77
522.68	14853.89
523.05	15166.08
523.41	15270.66
523.77	15414.86
524.13	15626.28
524.50	15795.06
524.86	15956.99
525.22	16087.05
525.58	16171.77
525.95	16327.64
526.31	16446.93
526.67	16612.79
527.03	16730.39
527.39	16784.37
527.76	16977.04
528.12	16932.61
528.48	16919.81
528.84	17130.89
529.20	17075.12
529.57	17221.68
529.93	17215.62
530.29	17218.87
530.65	17210.12
531.01	17207.76
531.38	17233.57
531.74	17191.72
532.10	17223.47
532.46	17222.24
532.82	17093.97
533.18	17047.63
533.55	16916.22
533.91	16981.08
534.27	16824.54
534.63	16734.99
534.99	16807.48
535.35	16615.59
535.71	16592.47
536.08	16344.81
536.44	16253.47
536.80	16191.30
537.16	15973.93
537.52	15870.13
537.88	15804.03
538.24	15565.46
538.60	15520.35
538.96	15363.24
539.32	15177.52
539.69	14945.23
540.05	14913.59
540.41	14714.96
540.77	14493.78
541.13	14416.35
541.49	14180.58
541.85	14057.48
542.21	14002.05
542.57	13676.39
542.93	13553.51
543.29	13368.47
543.65	13308.43
544.01	13102.85
544.37	12905.79
544.73	12739.49
545.09	12654.09
545.45	12501.59
545.81	12390.60
546.17	12304.53
546.53	12175.82
546.89	12007.61
547.25	11862.62
547.61	11704.17
547.97	11598.69
548.33	11465.82
548.69	11296.26
549.05	11158.34
549.41	11017.85
549.77	10877.13
550.13	10719.57
550.49	10615.21
550.85	10480.33
551.21	10362.05
551.57	10260.83
551.93	10056.48
552.29	9979.84
552.65	9859.09
553.01	9777.17
553.37	9585.50
553.73	9508.41
554.09	9399.78
554.44	9213.84
554.80	9178.27
555.16	9101.62
555.52	8949.68
555.88	8828.71
556.24	8737.59
556.60	8591.03
556.96	8461.65
557.32	8367.83
557.68	8263.81
558.03	8161.91
558.39	8018.50
558.75	7948.36
559.11	7792.61
559.47	7680.28
559.83	7535.18
560.19	7437.89
560.54	7326.79
560.90	7231.63
561.26	7087.43
561.62	7001.47
561.98	6860.19
562.34	6738.32
562.69	6646.42
563.05	6509.51
563.41	6401.78
563.77	6291.36
564.13	6184.42
564.48	6044.03
564.84	5932.04
565.20	5843.16
565.56	5721.18
565.92	5639.04
566.27	5485.19
566.63	5418.31
566.99	5298.68
567.35	5206.44
567.70	5078.40
568.06	4979.09
568.42	4901.66
568.78	4768.01
569.13	4695.52
569.49	4579.37
569.85	4506.20
570.21	4386.13
570.56	4296.69
570.92	4203.89
571.28	4160.35
571.63	4044.65
571.99	3960.94
572.35	3879.36
572.71	3780.83
573.06	3716.08
573.42	3638.09
573.78	3557.41
574.13	3491.98
574.49	3407.93
574.85	3345.88
575.20	3247.46
575.56	3171.71
575.92	3114.48
576.27	3042.66
576.63	2987.57
576.99	2942.45
577.34	2859.75
577.70	2836.75
578.06	2752.58
578.41	2701.97
578.77	2613.88
579.13	2605.35
579.48	2552.16
579.84	2509.07
580.19	2453.86
580.55	2404.37
580.91	2364.98
581.26	2315.72
581.62	2261.41
581.97	2257.03
582.33	2205.75
582.69	2171.86
583.04	2126.07
583.40	2072.10
583.75	2042.69
584.11	2032.71
584.46	1984.34
584.82	1943.72
585.17	1935.08
585.53	1891.20
585.89	1868.31
586.24	1829.48
586.60	1801.65
586.95	1777.97
587.31	1769.33
587.66	1751.15
588.02	1720.18
588.37	1686.40
588.73	1669.80
589.08	1629.40
589.44	1614.25
589.79	1567.34
590.15	1559.82
590.50	1517.40
590.86	1522.90
591.21	1504.05
591.57	1461.63
591.92	1467.80
592.28	1446.37
592.63	1434.81
592.99	1416.07
593.34	1406.76
593.69	1366.70
594.05	1366.81
594.40	1349.19
594.76	1320.24
595.11	1307.78
595.47	1299.81
595.82	1275.35
596.18	1256.61
596.53	1235.07
596.88	1226.99
597.24	1219.92
597.59	1209.82
597.95	1178.73
598.30	1176.71
598.65	1177.16
599.01	1201.06
599.36	1137.21
599.71	1121.05
600.07	1119.71
600.42	1094.34
600.78	1096.14
601.13	1087.05
601.48	1070.22
601.84	1046.99
602.19	1035.32
602.54	1027.80
602.90	1012.31
603.25	1016.80
603.60	1005.36
603.96	1000.53
604.31	974.83
604.66	977.86
605.02	980.44
605.37	962.60
605.72	945.43
606.08	939.04
606.43	941.39
606.78	938.47
607.13	921.53
607.49	930.28
607.84	910.76
608.19	899.42
608.55	891.23
608.90	882.03
609.25	874.62
609.60	869.35
609.96	866.88
610.31	862.62
610.66	870.02
611.01	886.18
611.37	914.91
611.72	924.45
612.07	943.41
612.42	909.07
612.77	897.85
613.13	859.36
613.48	849.94
613.83	836.36
614.18	811.00
614.53	822.44
614.89	808.75
615.24	825.02
615.59	792.48
615.94	794.05
616.29	790.46
616.65	769.59
617.00	759.60
617.35	754.44
617.70	741.65
618.05	738.73
618.40	750.40
618.75	744.11
619.11	743.10
619.46	740.07
619.81	746.13
620.16	743.89
620.51	729.75
620.86	745.91
621.21	749.28
621.56	733.12
621.92	731.99
622.27	736.15
622.62	743.10
622.97	726.61
623.32	722.01
623.67	725.04
624.02	723.58
624.37	711.68
624.72	725.93
625.07	710.90
625.42	737.61
625.77	738.17
626.12	720.10
626.47	707.19
626.82	730.98
627.18	723.80
627.53	712.81
627.88	724.03
628.23	707.19
628.58	721.00
628.93	706.63
629.28	716.51
629.63	711.46
629.98	719.43
630.33	718.87
630.68	712.47
631.03	713.03
631.38	740.64
631.73	740.07
632.08	723.80
632.43	718.08
632.78	719.31
633.12	729.53
633.47	710.34
633.82	700.24
634.17	731.99
634.52	710.22
634.87	711.57
635.22	717.86
635.57	705.74
635.92	724.14
636.27	710.22
636.62	693.06
636.97	717.07
637.32	731.43
637.67	707.87
638.01	724.48
638.36	715.39
638.71	716.85
639.06	718.87
639.41	714.83
639.76	712.36
640.11	711.91
640.46	710.00
640.81	717.86
641.15	713.14
641.50	723.35
641.85	712.24
642.20	717.41
642.55	729.41
642.90	713.70
643.24	702.71
643.59	714.15
643.94	707.08
644.29	705.62
644.64	706.18
644.99	706.52
645.33	721.11
645.68	716.06
646.03	700.69
646.38	707.31
646.72	692.72
647.07	703.38
647.42	717.18
647.77	706.07
648.12	711.57
648.46	682.51
648.81	698.10
649.16	716.06
649.51	705.40
649.85	696.53
650.20	693.95
650.55	712.81
650.90	692.83
651.24	699.34
651.59	692.72
651.94	706.86
652.28	699.90
652.63	695.19
652.98	696.87
653.33	700.57
653.67	696.87
654.02	681.95
654.37	709.10
654.71	696.98
655.06	699.00
655.41	681.27
655.75	711.91
656.10	697.77
656.45	695.30
656.79	693.06
657.14	683.97
657.49	692.16
657.83	680.60
658.18	695.52
658.53	694.96
658.87	699.56
659.22	697.77
659.56	686.43
659.91	682.17
660.26	684.64
660.60	691.26
660.95	684.98
661.29	688.34
661.64	685.20
661.99	698.22
662.33	682.73
662.68	687.67
663.02	687.78
663.37	694.85
663.72	674.09
664.06	697.88
664.41	681.05
664.75	682.96
665.10	676.33
665.44	683.29
665.79	685.42
666.13	680.04
666.48	694.74
666.82	673.19
667.17	667.58
667.51	678.02
667.86	674.43
668.20	677.79
668.55	681.72
668.89	684.98
669.24	687.22
669.58	674.65
669.93	668.93
670.27	692.38
670.62	664.10
670.96	667.36
671.31	683.29
671.65	679.14
672.00	677.46
672.34	681.38
672.69	677.23
673.03	667.81
673.38	679.36
673.72	663.09
674.06	676.90
674.41	684.75
674.75	661.97
675.10	695.64
675.44	660.74
675.78	674.88
676.13	694.29
676.47	689.91
676.82	661.97
677.16	661.30
677.50	674.65
677.85	664.33
678.19	665.56
678.54	673.75
678.88	671.17
679.22	666.91
679.57	660.74
679.91	677.79
680.25	685.09
680.60	681.16
680.94	674.76
681.28	663.21
681.63	661.97
681.97	677.46
682.31	662.08
682.66	681.27
683.00	676.33
683.34	662.76
683.69	660.74
684.03	669.26
684.37	674.09
684.71	663.99
685.06	664.78
685.40	687.33
685.74	684.41
686.09	668.03
686.43	679.25
686.77	671.06
687.11	647.49
687.46	672.74
687.80	655.80
688.14	658.94
688.48	666.46
688.82	650.30
689.17	663.99
689.51	670.84
689.85	660.62
690.19	673.64
690.54	657.93
690.88	659.05
691.22	651.09
691.56	656.92
691.90	655.46
692.25	670.05
692.59	660.62
692.93	652.99
693.27	665.56
693.61	656.02
693.95	660.40
694.30	655.57
694.64	663.88
694.98	669.83
695.32	668.26
695.66	665.67
696.00	674.20
696.34	671.96
696.68	659.73
697.03	669.83
697.37	661.75
697.71	660.96
698.05	653.78
698.39	668.14
698.73	653.78
699.07	650.30
699.41	678.92
699.75	659.05
700.09	655.80
700.44	645.59
700.78	665.45
701.12	697.54
701.46	668.26
701.80	657.71
702.14	656.25
702.48	656.36
702.82	671.28
703.16	662.64
703.50	666.68
703.84	668.93
704.18	651.76
704.52	657.26
704.86	657.37
705.20	676.00
705.54	642.11
705.88	667.36
706.22	654.45
706.56	674.65
706.90	655.57
707.24	672.74
707.58	658.83
707.92	657.93
708.26	665.45
708.60	668.70
708.94	668.14
709.28	669.38
709.62	679.14
709.96	668.48
710.30	657.03
710.63	652.88
710.97	670.50
711.31	668.70
711.65	650.52
711.99	669.38
712.33	660.96
712.67	668.70
713.01	663.77
713.35	669.83
713.69	663.65
714.03	654.34
714.36	656.81
714.70	661.86
715.04	671.96
715.38	658.38
715.72	654.45
716.06	659.17
716.40	671.40
716.73	656.14
717.07	662.53
717.41	654.12
717.75	659.73
718.09	636.61
718.43	647.83
718.76	644.24
719.10	658.27
719.44	644.24
719.78	651.87
720.12	665.00
720.45	647.16
720.79	648.06
721.13	658.27
721.47	660.06
721.80	658.16
722.14	656.14
722.48	672.07
722.82	668.03
723.16	654.12
723.49	649.96
723.83	661.19
724.17	657.15
724.50	656.81
724.84	650.86
725.18	653.33
725.52	651.42
725.85	671.62
726.19	668.93
726.53	654.68
726.87	655.80
727.20	654.79
727.54	652.10
727.88	641.77
728.21	649.29
728.55	648.17
728.89	654.90
729.22	662.42
729.56	645.92
729.90	656.14
730.23	651.42
730.57	652.54
730.91	653.11
731.24	665.45
731.58	667.02
731.91	656.81
732.25	660.29
732.59	657.03
732.92	678.92
733.26	664.78
733.60	667.25
733.93	668.14
734.27	671.28
734.60	655.46
734.94	655.80
735.27	667.81
735.61	678.58
735.95	652.32
736.28	659.61
736.62	667.13
736.95	637.73
737.29	656.14
737.62	661.19
737.96	654.90
738.29	662.31
738.63	658.16
738.97	664.55
739.30	672.97
739.64	667.25
739.97	641.21
740.31	680.49
740.64	670.27
740.98	662.64
741.31	662.08
741.65	655.69
741.98	655.01
742.32	657.26
742.65	664.66
742.98	666.80
743.32	652.99
743.65	682.84
743.99	672.86
744.32	653.44
744.66	666.24
744.99	660.74
745.33	675.32
745.66	686.66
745.99	667.36
746.33	657.26
746.66	651.31
747.00	657.26
747.33	662.76
747.67	661.97
748.00	680.71
748.33	669.83
748.67	657.48
749.00	643.34
749.33	671.62
749.67	674.99
750.00	685.87
750.34	657.93
750.67	663.77
751.00	653.67
751.34	658.49
751.67	683.85
752.00	672.74
752.34	672.86
752.67	666.57
753.00	663.65
753.34	653.22
753.67	669.71
754.00	669.60
754.34	658.27
754.67	665.45
755.00	652.88
755.33	650.86
755.67	667.58
756.00	671.85
756.33	661.19
756.67	674.76
757.00	659.73
757.33	659.17
757.66	657.37
758.00	659.95
758.33	661.63
758.66	663.21
758.99	668.37
759.33	666.91
759.66	656.81
759.99	647.49
760.32	637.62
760.65	631.56
760.99	645.36
761.32	632.91
761.65	636.50
761.98	654.90
762.31	651.31
762.65	650.08
762.98	644.24
763.31	644.91
763.64	671.85
763.97	638.18
764.30	657.93
764.64	627.97
764.97	651.31
765.30	654.90
765.63	636.39
765.96	653.78
766.29	634.93
766.62	669.15
766.95	645.47
767.29	647.16
767.62	659.28
767.95	646.04
768.28	666.12
768.61	665.23
768.94	665.79
769.27	662.53
769.60	657.26
769.93	676.56
770.26	660.51
770.59	661.63
770.92	669.83
771.25	643.90
771.59	675.32
771.92	672.07
772.25	673.19
772.58	653.78
772.91	665.11
773.24	665.00
773.57	659.17
773.90	652.10
774.23	646.82
774.56	661.75
774.89	664.66
775.22	637.51
775.55	662.76
775.88	647.83
776.21	651.42
776.54	678.92
776.87	648.50
777.20	669.38
777.53	650.86
777.85	652.88
778.18	658.49
778.51	656.81
778.84	659.95
779.17	650.30
779.50	648.84
779.83	685.54
780.16	652.99
780.49	639.64
780.82	646.93
781.15	640.43
781.48	658.94
781.81	652.32
782.13	658.38
782.46	650.08
782.79	679.93
783.12	656.36
783.45	665.90
783.78	667.47
784.11	653.89
784.43	658.27
784.76	657.26
785.09	664.78
785.42	651.20
785.75	651.65
786.08	655.13
786.40	669.04
786.73	663.43
787.06	704.05
787.39	652.88
787.72	636.16
788.04	644.91
788.37	662.20
788.70	654.56
